# Column 1: perturbance scale factor x
# Column 2: wave number k
# Column 3-130: columns running trought different k, rows trought different x
#evaluated at a = 1.000000
0.001 0.01 25361.9 26032.9 26676 27286.8 27861.3 28395.8 28886.2 29328.8 29720.3 30058.7 30340.9 30564.6 30727.9 30831 30872.2 30850.5 30765.8 30620.2 30413.7 30146.2 29818.8 29435.5 28998 28506.3 27962.9 27373 26740.6 26065.2 25350.2 24601.9 23827.4 23024.6 22197.6 21353.3 20502.5 19640.3 18771 17901 17045.4 16194.7 15353 14524.5 13729 12951.5 12194.5 11460.5 10770.6 10107.2 9470.16 8860.5 8297.79 7765.41 7259.6 6780.6 6345.4 5940.45 5558.98 5200.37 4878.54 4584.6 4309.43 4052.29 3823.26 3618.47 3427.99 3251.23 3093.85 2956 2829.18 2712.95 2608.78 2517.75 2435.95 2363.03 2297.31 2235.55 2182.3 2137.47 2097.85 2050.15 2010.95 1980.21 1955.92 1909.51 1871.7 1842.45 1821.84 1768.79 1723.01 1685.68 1656.71 1596.3 1538.55 1488.94 1447.28 1380.85 1313.31 1253.69 1201.47 1133.63 1062.99 999.887 943.674 880.164 814.051 754.84 701.857 647.294 591.265 541.182 496.418 453.057 409.398 370.523 335.896 303.688 271.944 243.801 218.845 196.241 174.42 155.156 138.146 123.008 108.668 96.0569 84.9644 75.2054 
0.0010559 0.010559 26061.1 26750.6 27411.4 28039.1 28629.4 29178.7 29682.6 30137.4 30539.6 30887.4 31177.4 31407.2 31575 31681 31723.3 31701 31614 31464.4 31252.2 30977.3 30640.9 30247 29797.4 29292.2 28733.8 28127.6 27477.8 26783.8 26049.1 25280.2 24484.3 23659.4 22809.5 21942 21067.7 20181.7 19288.5 18394.5 17515.3 16641.2 15776.3 14924.9 14107.5 13308.5 12530.7 11776.4 11067.5 10385.8 9731.25 9104.77 8526.55 7979.49 7459.74 6967.54 6520.33 6104.22 5712.23 5343.74 5013.04 4710.99 4428.24 4164.01 3928.67 3718.23 3522.5 3340.86 3179.15 3037.49 2907.18 2787.74 2680.7 2587.16 2503.11 2428.17 2360.64 2297.18 2242.47 2196.4 2155.69 2106.67 2066.39 2034.81 2009.84 1962.16 1923.3 1893.24 1872.06 1817.56 1770.52 1732.15 1702.39 1640.31 1580.97 1529.99 1487.18 1418.91 1349.52 1288.26 1234.59 1164.88 1092.3 1027.45 969.691 904.429 836.493 775.651 721.207 665.139 607.566 556.102 510.104 465.548 420.685 380.738 345.156 312.06 279.441 250.522 224.878 201.651 179.228 159.434 141.954 126.399 111.664 98.7051 87.3068 77.2787 
0.00111492 0.0111492 26779.6 27488.1 28167.1 28812.1 29418.6 29983.1 30500.9 30968.2 31381.6 31739 32036.9 32273.1 32445.5 32554.4 32597.9 32575 32485.6 32331.8 32113.8 31831.3 31485.6 31080.9 30618.9 30099.8 29526 28903.1 28235.4 27522.2 26767.2 25977.1 25159.3 24311.6 23438.4 22546.9 21648.6 20738.1 19820.3 18901.7 17998.2 17100 16211.2 15336.3 14496.4 13675.4 12876.1 12101.1 11372.7 10672.2 9999.53 9355.78 8761.62 8199.48 7665.4 7159.63 6700.09 6272.51 5869.71 5491.06 5151.24 4840.87 4550.32 4278.81 4036.98 3820.73 3619.61 3432.97 3266.79 3121.23 2987.33 2864.59 2754.6 2658.49 2572.12 2495.11 2425.72 2360.51 2304.29 2256.95 2215.12 2164.75 2123.35 2090.9 2065.25 2016.25 1976.32 1945.44 1923.68 1867.66 1819.33 1779.91 1749.32 1685.53 1624.55 1572.17 1528.18 1458.03 1386.73 1323.77 1268.63 1196.99 1122.41 1055.78 996.424 929.364 859.555 797.034 741.09 683.477 624.316 571.434 524.167 478.382 432.283 391.234 354.672 320.663 287.145 257.429 231.078 207.21 184.17 163.829 145.868 129.884 114.742 101.426 89.7137 79.4092 
0.00117724 0.0117724 27517.9 28245.9 28943.7 29606.4 30229.7 30809.7 31341.8 31822 32246.8 32614 32920.2 33162.8 33340 33451.9 33496.6 33473.1 33381.2 33223.2 32999.2 32708.9 32353.7 31937.8 31463.1 30929.6 30340 29699.9 29013.8 28281 27505.2 26693.3 25853 24981.9 24084.5 23168.5 22245.4 21309.9 20366.7 19422.8 18494.4 17571.4 16658.2 15759.2 14896.1 14052.4 13231.1 12434.7 11686.2 10966.4 10275.2 9613.71 9003.17 8425.53 7876.72 7357.01 6884.81 6445.44 6031.54 5642.44 5293.26 4974.33 4675.77 4396.77 4148.27 3926.07 3719.4 3527.61 3356.86 3207.28 3069.69 2943.57 2830.54 2731.78 2643.03 2563.9 2492.6 2425.59 2367.82 2319.17 2276.19 2224.43 2181.89 2148.55 2122.19 2071.84 2030.81 1999.07 1976.71 1919.15 1869.48 1828.98 1797.55 1732 1669.34 1615.52 1570.31 1498.23 1424.96 1360.27 1303.61 1229.99 1153.36 1084.89 1023.89 954.985 883.252 819.008 761.521 702.32 641.527 587.187 538.618 491.571 444.2 402.02 364.45 329.504 295.061 264.526 237.449 212.923 189.247 168.346 149.889 133.464 117.906 104.223 92.1871 81.5985 
0.00124305 0.0124305 28276.5 29024.6 29741.6 30422.7 31063.1 31659.1 32205.9 32699.3 33135.8 33513.1 33827.8 34077.1 34259.2 34374.1 34420.1 34395.9 34301.5 34139.1 33908.9 33610.6 33245.6 32818.2 32330.5 31782.3 31176.4 30518.7 29813.7 29060.7 28263.4 27429.2 26565.7 25670.6 24748.5 23807.3 22858.7 21897.4 20928.2 19958.2 19004.2 18055.9 17117.4 16193.6 15306.8 14439.8 13595.9 12777.5 12008.4 11268.7 10558.5 9878.75 9251.38 8657.81 8093.88 7559.84 7074.62 6623.13 6197.82 5798 5439.19 5111.46 4804.67 4517.98 4262.64 4034.31 3821.94 3624.87 3449.4 3295.7 3154.32 3024.72 2908.58 2807.09 2715.9 2634.59 2561.32 2492.46 2433.1 2383.11 2338.94 2285.76 2242.05 2207.78 2180.69 2128.96 2086.8 2054.18 2031.21 1972.06 1921.02 1879.4 1847.1 1779.75 1715.36 1660.05 1613.6 1539.53 1464.24 1397.77 1339.54 1263.9 1185.16 1114.79 1052.12 981.313 907.602 841.587 782.515 721.682 659.214 603.376 553.467 505.123 456.447 413.104 374.498 338.588 303.196 271.819 243.995 218.793 194.464 172.987 154.022 137.144 121.156 107.096 94.7286 83.848 
0.00131253 0.0131253 29056.1 29824.8 30561.6 31261.4 31919.5 32531.9 33093.8 33600.8 34049.3 34437 34760.4 35016.6 35203.7 35321.8 35369 35344.2 35247.1 35080.3 34843.8 34537.2 34162.2 33723 33221.8 32658.5 32035.9 31360.1 30635.6 29861.9 29042.6 28185.4 27298.1 26378.3 25430.8 24463.6 23488.9 22501 21505.2 20508.4 19528.2 18553.6 17589.3 16640.1 15728.8 14837.9 13970.7 13129.8 12339.4 11579.4 10849.6 10151.1 9506.43 8896.5 8317.02 7768.25 7269.66 6805.73 6368.69 5957.84 5589.14 5252.38 4937.14 4642.54 4380.15 4145.53 3927.31 3724.8 3544.5 3386.56 3241.28 3108.11 2988.77 2884.48 2790.77 2707.22 2631.93 2561.18 2500.17 2448.81 2403.42 2348.77 2303.86 2268.65 2240.81 2187.65 2144.33 2110.82 2087.2 2026.43 1973.99 1931.21 1898.03 1828.82 1762.65 1705.82 1658.09 1581.98 1504.61 1436.3 1376.47 1298.75 1217.83 1145.53 1081.13 1008.37 932.624 864.789 804.089 741.578 677.388 620.01 568.726 519.049 469.03 424.493 384.822 347.922 311.555 279.312 250.722 224.825 199.826 177.756 158.268 140.925 124.496 110.048 97.3401 86.1597 
0.0013859 0.013859 29857.1 30647 31404.1 32123.2 32799.5 33428.8 34006.1 34527.1 34988 35386.4 35718.7 35981.9 36174.2 36295.5 36344.1 36318.6 36218.9 36047.5 35804.4 35489.4 35104 34652.7 34137.7 33558.9 32919.1 32224.7 31480.2 30685.1 29843.3 28962.5 28050.7 27105.5 26131.9 25138.1 24136.4 23121.4 22098 21073.8 20066.5 19065.1 18074.2 17098.8 16162.4 15247 14355.9 13491.7 12679.6 11898.6 11148.7 10431 9768.51 9141.77 8546.31 7982.42 7470.07 6993.36 6544.27 6122.1 5743.23 5397.19 5073.25 4770.53 4500.91 4259.82 4035.58 3827.49 3642.22 3479.93 3330.64 3193.8 3071.16 2964.01 2867.71 2781.86 2704.49 2631.79 2569.1 2516.32 2469.68 2413.53 2367.37 2331.19 2302.59 2247.96 2203.45 2169.01 2144.75 2082.3 2028.41 1984.46 1950.35 1879.23 1811.25 1752.85 1703.8 1625.59 1546.09 1475.9 1414.42 1334.55 1251.4 1177.11 1110.93 1036.17 958.336 888.631 826.257 762.023 696.063 637.103 584.405 533.358 481.961 436.195 395.431 357.514 320.144 287.013 257.634 231.023 205.335 182.656 162.631 144.81 127.929 113.082 100.024 88.535 
0.00146337 0.0146337 30680.2 31492 32269.9 33008.8 33703.7 34350.4 34943.7 35479 35952.6 36362 36703.4 36973.9 37171.5 37296.2 37346.1 37319.8 37217.4 37041.3 36791.5 36467.8 36071.8 35608.1 35078.8 34484.1 33826.7 33113.1 32348.1 31531.1 30666.1 29760.9 28824 27852.8 26852.4 25831.1 24801.9 23758.8 22707.3 21654.8 20619.8 19590.8 18572.5 17570.2 16608 15667.4 14751.6 13863.7 13029.2 12226.7 11456 10718.5 10037.8 9393.8 8781.93 8202.49 7676.02 7186.16 6724.69 6290.88 5901.57 5545.98 5213.11 4902.05 4625 4377.26 4146.84 3933.01 3742.63 3575.87 3422.46 3281.85 3155.83 3045.72 2946.77 2858.55 2779.05 2704.34 2639.93 2585.7 2537.77 2480.06 2432.64 2395.46 2366.07 2309.94 2264.19 2228.81 2203.87 2139.71 2084.33 2039.16 2004.12 1931.04 1861.18 1801.17 1750.77 1670.41 1588.71 1516.59 1453.42 1371.35 1285.9 1209.56 1141.56 1064.73 984.756 913.129 849.036 783.031 715.252 654.668 600.517 548.063 495.248 448.221 406.333 367.371 328.97 294.926 264.736 237.392 210.996 187.692 167.115 148.802 131.456 116.2 102.781 90.9758 
0.00154517 0.0154517 31526.1 32360.2 33159.5 33918.9 34632.9 35297.4 35907 36457.2 36943.8 37364.5 37715.3 37993.3 38196.3 38324.4 38375.6 38348.7 38243.4 38062.4 37805.8 37473.2 37066.3 36589.8 36045.9 35434.8 34759.2 34026 33239.9 32400.4 31511.5 30581.4 29618.7 28620.7 27592.7 26543.2 25485.6 24413.8 23333.3 22251.8 21188.2 20130.9 19084.6 18054.6 17065.8 16099.3 15158.3 14245.9 13388.4 12563.7 11771.9 11014 10314.6 9652.78 9024.04 8428.62 7887.64 7384.27 6910.08 6464.31 6064.27 5698.88 5356.83 5037.2 4752.5 4497.93 4261.16 4041.44 3845.81 3674.45 3516.82 3372.32 3242.84 3129.69 3028.01 2937.36 2855.66 2778.9 2712.71 2656.98 2607.73 2548.44 2499.7 2461.5 2431.3 2373.62 2326.61 2290.25 2264.63 2198.69 2141.79 2095.38 2059.38 1984.28 1912.49 1850.83 1799.04 1716.46 1632.51 1558.4 1493.49 1409.15 1321.35 1242.91 1173.03 1094.09 1011.91 938.303 872.443 804.618 734.971 672.716 617.072 563.172 508.902 460.578 417.535 377.499 338.04 303.056 272.035 243.937 216.812 192.867 171.722 152.905 135.08 119.403 105.615 93.484 
0.00163154 0.0163154 32395.2 33252.3 34073.7 34854 35587.7 36270.5 36896.9 37462.2 37962.3 38394.6 38755 39040.7 39249.3 39381 39433.6 39405.9 39297.8 39111.8 38848 38506.3 38088.1 37598.5 37039.7 36411.7 35717.5 34964 34156.3 33293.6 32380.3 31424.5 30435.2 29409.7 28353.4 27275 26188.2 25086.9 23976.6 22865.3 21772.4 20685.8 19610.7 18552.4 17536.3 16543.1 15576.2 14638.7 13757.5 12910.1 12096.4 11317.7 10598.9 9918.9 9272.82 8660.99 8105.09 7587.85 7100.58 6642.53 6231.45 5855.99 5504.52 5176.07 4883.52 4621.94 4378.64 4152.86 3951.84 3775.75 3613.77 3465.3 3332.24 3215.97 3111.49 3018.34 2934.39 2855.51 2787.5 2730.23 2679.62 2618.7 2568.62 2529.36 2498.33 2439.06 2390.76 2353.39 2327.07 2259.31 2200.84 2153.15 2116.15 2038.98 1965.22 1901.86 1848.64 1763.78 1677.52 1601.36 1534.66 1448 1357.78 1277.17 1205.37 1124.25 1039.8 964.172 896.495 826.801 755.234 691.262 634.084 578.698 522.932 473.276 429.046 387.906 347.359 311.411 279.535 250.662 222.79 198.184 176.456 157.12 138.804 122.695 108.527 96.0612 
0.00172274 0.0172274 33288.3 34169 35013.1 35814.9 36568.8 37270.5 37914.2 38495 39008.9 39453.1 39823.5 40117 40331.4 40466.7 40520.8 40492.3 40381.2 40190.1 39919 39567.9 39138.2 38635.1 38060.8 37415.5 36702.2 35928 35098 34211.5 33273 32290.9 31274.3 30220.5 29135 28026.9 26910.2 25778.5 24637.6 23495.7 22372.6 21256.1 20151.3 19063.8 18019.8 16999.2 16005.7 15042.2 14136.8 13266 12429.9 11629.7 10891.1 10192.4 9528.46 8899.77 8328.54 7797.04 7296.34 6825.65 6403.25 6017.44 5656.27 5318.77 5018.16 4749.36 4499.35 4267.35 4060.79 3879.85 3713.4 3560.83 3424.11 3304.63 3197.27 3101.55 3015.29 2934.23 2864.35 2805.5 2753.5 2690.89 2639.43 2599.1 2567.21 2506.3 2456.67 2418.27 2391.22 2321.6 2261.51 2212.51 2174.49 2095.2 2019.4 1954.29 1899.6 1812.41 1723.77 1645.51 1576.97 1487.92 1395.22 1312.38 1238.6 1155.24 1068.47 990.753 921.211 849.595 776.055 710.32 651.566 594.653 537.349 486.324 440.875 398.6 356.935 319.997 287.241 257.573 228.932 203.647 181.321 161.452 142.63 126.078 111.519 98.7095 
0.00181904 0.0181904 34206 35111.1 35978.4 36802.3 37577 38298 38959.4 39556.3 40084.3 40540.8 40921.4 41223 41443.3 41582.3 41637.9 41608.7 41494.5 41298.1 41019.6 40658.7 40217.2 39700.2 39110.1 38447 37714.1 36918.5 36065.6 35154.7 34190.3 33181.1 32136.5 31053.7 29938.3 28799.6 27652.1 26489.2 25316.8 24143.4 22989.4 21842.1 20706.9 19589.4 18516.6 17467.9 16446.9 15456.9 14526.5 13631.8 12772.6 11950.3 11191.4 10473.3 9791.15 9145.12 8558.15 8012 7497.49 7013.83 6579.78 6183.33 5812.21 5465.4 5156.51 4880.3 4623.4 4384.99 4172.74 3986.81 3815.77 3659 3518.51 3395.74 3285.42 3187.06 3098.42 3015.13 2943.31 2882.85 2829.41 2765.08 2712.2 2670.75 2637.98 2575.4 2524.4 2484.94 2457.15 2385.6 2323.86 2273.51 2234.44 2152.96 2075.07 2008.17 1951.97 1862.37 1771.29 1690.88 1620.45 1528.94 1433.68 1348.57 1272.75 1187.09 1097.93 1018.07 946.608 873.018 797.45 729.903 669.529 611.047 552.163 499.731 453.029 409.589 366.776 328.819 295.16 264.674 235.243 209.262 186.32 165.903 146.563 129.554 114.593 101.431 
0.00192072 0.0192072 35149.1 36079 36970.3 37816.9 38613 39353.8 40033.5 40646.8 41189.4 41658.4 42049.6 42359.5 42585.8 42728.7 42785.8 42755.8 42638.4 42436.6 42150.5 41779.6 41325.9 40794.7 40188.4 39507 38753.8 37936.3 37059.9 36123.8 35132.9 34095.9 33022.5 31909.8 30763.6 29593.6 28414.5 27219.5 26014.8 24809 23623.2 22444.3 21277.8 20129.5 19027.1 17949.4 16900.3 15883.1 14927 14007.6 13124.7 12279.8 11499.9 10762.1 10061.1 9397.25 8794.09 8232.88 7704.19 7207.2 6761.18 6353.8 5972.45 5616.08 5298.67 5014.84 4750.86 4505.89 4287.78 4096.72 3920.97 3759.87 3615.51 3489.36 3375.99 3274.92 3183.84 3098.25 3024.46 2962.32 2907.41 2841.31 2786.97 2744.38 2710.71 2646.4 2593.99 2553.45 2524.89 2451.37 2387.93 2336.19 2296.04 2212.32 2132.28 2063.53 2005.79 1913.72 1820.12 1737.49 1665.12 1571.09 1473.21 1385.74 1307.84 1219.82 1128.19 1046.13 972.705 897.086 819.435 750.026 687.987 627.893 567.385 513.508 465.519 420.881 376.887 337.884 303.298 271.971 241.729 215.031 191.457 170.477 150.603 133.125 117.752 104.227 
0.00202809 0.0202809 36118.1 37073.7 37989.5 38859.4 39677.5 40438.8 41137.2 41767.4 42324.9 42806.9 43208.8 43527.3 43759.9 43906.7 43965.4 43934.5 43813.9 43606.6 43312.5 42931.5 42465.3 41919.4 41296.3 40596.1 39822.2 38982.1 38081.6 37119.7 36101.4 35035.9 33932.9 32789.5 31611.8 30409.5 29197.8 27969.9 26732 25493 24274.5 23063.1 21864.4 20684.4 19551.6 18444.3 17366.3 16321 15338.5 14393.8 13486.6 12618.3 11817 11058.8 10338.5 9656.32 9036.54 8459.85 7916.59 7405.89 6947.58 6528.97 6137.1 5770.91 5444.74 5153.1 4881.84 4630.11 4405.99 4209.66 4029.07 3863.53 3715.18 3585.55 3469.07 3365.21 3271.62 3183.67 3107.84 3043.99 2987.57 2919.64 2863.81 2820.04 2785.44 2719.36 2665.51 2623.85 2594.5 2518.95 2453.76 2400.59 2359.34 2273.31 2191.06 2120.42 2061.08 1966.48 1870.3 1785.4 1711.03 1614.41 1513.82 1423.95 1343.9 1253.45 1159.3 1074.98 999.522 921.818 842.026 770.703 706.954 645.203 583.028 527.665 478.353 432.484 387.278 347.199 311.659 279.469 248.393 220.959 196.735 175.176 154.755 136.796 120.999 107.101 
0.00214145 0.0214145 37113.9 38095.8 39036.9 39930.8 40771.3 41553.7 42271.3 42918.9 43491.8 43987.1 44400.1 44727.3 44966.3 45117.1 45177.5 45145.8 45021.8 44808.8 44506.6 44115.1 43636 43075 42434.8 41715.3 40920.1 40056.8 39131.5 38143.1 37096.7 36001.8 34868.4 33693.5 32483.3 31247.8 30002.8 28741 27468.9 26195.8 24943.7 23698.9 22467.2 21254.7 20090.6 18952.8 17845 16770.9 15761.4 14790.6 13858.4 12966.2 12142.7 11363.7 10623.5 9922.54 9285.67 8693.08 8134.84 7610.07 7139.12 6708.97 6306.3 5930 5594.85 5295.16 5016.42 4757.76 4527.46 4325.72 4140.15 3970.05 3817.61 3684.4 3564.7 3457.98 3361.81 3271.44 3193.52 3127.91 3069.93 3000.13 2942.76 2897.79 2862.23 2794.33 2738.99 2696.19 2666.02 2588.4 2521.41 2466.77 2424.39 2335.98 2251.47 2178.88 2117.91 2020.69 1921.87 1834.62 1758.2 1658.92 1555.56 1463.2 1380.95 1288.01 1191.26 1104.61 1027.08 947.232 865.24 791.951 726.444 662.991 599.101 542.212 491.541 444.408 397.955 356.771 320.251 287.173 255.241 227.051 202.159 180.006 159.022 140.567 124.334 110.053 
0.00226116 0.0226116 38137 39146.1 40113.1 41031.6 41895.4 42699.3 43436.7 44102.2 44690.8 45199.7 45624.1 45960.4 46206 46361 46423 46390.4 46263 46044.1 45733.6 45331.3 44839 44262.6 43604.7 42865.4 42048.2 41161.2 40210.3 39194.7 38119.4 36994.3 35829.6 34622.4 33378.8 32109.3 30829.9 29533.4 28226.2 26918 25631.4 24352.3 23086.6 21840.6 20644.5 19475.3 18337 17233.3 16195.9 15198.3 14240.4 13323.7 12477.5 11677 10916.4 10196.1 9541.67 8932.74 8359.11 7819.87 7335.94 6893.93 6480.15 6093.49 5749.1 5441.14 5154.72 4888.92 4652.27 4444.98 4254.29 4079.5 3922.86 3785.98 3662.98 3553.32 3454.49 3361.63 3281.56 3214.15 3154.57 3082.84 3023.89 2977.68 2941.14 2871.36 2814.5 2770.52 2739.52 2659.76 2590.92 2534.78 2491.22 2400.38 2313.54 2238.95 2176.29 2076.4 1974.85 1885.2 1806.67 1704.65 1598.44 1503.54 1419.02 1323.52 1224.1 1135.06 1055.39 973.346 889.094 813.784 746.472 681.269 615.618 557.161 505.092 456.66 408.926 366.607 329.08 295.09 262.278 233.31 207.732 184.968 163.406 144.442 127.762 113.087 
0.00238755 0.0238755 39188.4 40225.3 41218.9 42162.8 43050.4 43876.4 44634.2 45318 45922.9 46445.9 46881.9 47227.5 47479.8 47639.1 47702.8 47669.3 47538.5 47313.5 46994.4 46581 46075.2 45482.9 44806.9 44047.2 43207.4 42296 41318.8 40275.2 39170.4 38014.2 36817.4 35576.9 34299 32994.5 31679.9 30347.6 29004.4 27660.1 26338 25023.6 23723 22442.8 21213.7 20012.2 18842.6 17708.4 16642.4 15617.3 14633 13691 12821.5 11998.9 11217.3 10477.2 9804.72 9179.01 8589.57 8035.46 7538.18 7083.99 6658.81 6261.48 5907.59 5591.15 5296.83 5023.71 4780.53 4567.52 4371.57 4191.96 4031.01 3890.36 3763.97 3651.28 3549.73 3454.31 3372.03 3302.76 3241.54 3167.83 3107.25 3059.77 3022.22 2950.52 2892.1 2846.9 2815.05 2733.09 2662.35 2604.66 2559.91 2466.56 2377.32 2300.67 2236.29 2133.64 2029.29 1937.17 1856.48 1751.65 1642.51 1545 1458.14 1360 1257.85 1166.36 1084.49 1000.18 913.605 836.219 767.051 700.051 632.59 572.521 519.017 469.249 420.2 376.714 338.153 303.226 269.509 239.743 213.459 190.068 167.911 148.424 131.284 116.205 
0.00252101 0.0252101 40268.8 41334.2 42355.3 43325.2 44237.3 45086.1 45864.7 46567.4 47189 47726.3 48174.4 48529.5 48788.8 48952.5 49017.9 48983.5 48849.1 48617.9 48290 47865.2 47345.4 46736.8 46042.1 45261.5 44398.6 43462 42458 41385.6 40250.2 39062.2 37832.5 36557.7 35244.6 33904.2 32553.3 31184.2 29804 28422.7 27064.1 25713.5 24377.1 23061.5 21798.5 20563.9 19362 18196.6 17101.3 16047.9 15036.4 14068.4 13175 12329.7 11526.6 10766 10075 9432.07 8826.37 8256.99 7746 7279.28 6842.38 6434.1 6070.46 5745.29 5442.86 5162.21 4912.33 4693.44 4492.09 4307.53 4142.14 3997.61 3867.73 3751.94 3647.59 3549.54 3464.99 3393.81 3330.9 3255.17 3192.92 3144.12 3105.54 3031.87 2971.83 2925.38 2892.66 2808.43 2735.75 2676.47 2630.48 2534.56 2442.86 2364.1 2297.94 2192.47 2085.24 1990.58 1907.66 1799.94 1687.79 1587.59 1498.34 1397.5 1292.53 1198.51 1114.39 1027.75 938.793 859.273 788.198 719.351 650.03 588.305 533.326 482.186 431.784 387.1 347.475 311.585 276.939 246.352 219.344 195.308 172.54 152.516 134.904 119.409 
0.00266193 0.0266193 41379 42473.8 43523 44519.6 45456.8 46329 47129.2 47851.2 48489.9 49042.1 49502.6 49867.4 50133.9 50302.1 50369.3 50334 50195.8 49958.2 49621.3 49184.8 48650.7 48025.3 47311.5 46509.3 45622.7 44660.2 43628.5 42526.6 41359.9 40139.1 38875.5 37565.6 36216.3 34838.9 33450.7 32044 30625.7 29206.3 27810.2 26422.4 25049.1 23697.3 22399.5 21130.9 19895.8 18698.2 17572.7 16490.3 15451 14456.3 13538.2 12669.6 11844.3 11062.8 10352.8 9692.1 9069.71 8484.62 7959.55 7479.97 7031.02 6611.49 6237.82 5903.69 5592.92 5304.52 5047.76 4822.84 4615.94 4426.29 4256.33 4107.82 3974.36 3855.38 3748.15 3647.4 3560.52 3487.38 3422.73 3344.91 3280.94 3230.8 3191.16 3115.45 3053.76 3006.03 2972.41 2885.86 2811.17 2750.26 2703 2604.43 2510.21 2429.28 2361.3 2252.91 2142.73 2045.45 1960.25 1849.56 1734.32 1631.36 1539.65 1436.03 1328.16 1231.55 1145.11 1056.09 964.674 882.962 809.928 739.182 667.951 604.524 548.029 495.479 443.688 397.772 357.055 320.176 284.574 253.144 225.391 200.692 177.297 156.721 138.623 122.701 
