# Column 1: perturbance scale factor x
# Column 2: wave number k
# Column 3-130: columns running trought different k, rows trought different x
#evaluated at a = 1.000000
0.001 0.01 12681.1 13016.7 13338.2 13643.7 13930.9 14198.3 14443.5 14664.9 14860.7 15030 15171.2 15283.1 15364.8 15416.5 15437.2 15426.5 15384.3 15311.6 15208.5 15074.9 14911.4 14720 14501.4 14255.8 13984.4 13689.7 13373.8 13036.4 12679.2 12305.4 11918.5 11517.4 11104.3 10682.5 10257.6 9826.88 9392.65 8958.05 8530.74 8105.9 7685.47 7271.58 6874.43 6486.15 6108.11 5741.48 5397.13 5065.95 4747.87 4443.41 4162.63 3896.97 3644.54 3405.41 3188.38 2986.47 2796.21 2617.29 2456.96 2310.62 2173.58 2045.47 1931.58 1829.93 1735.36 1647.56 1569.6 1501.6 1439.05 1381.73 1330.56 1286.21 1246.41 1211.04 1179.37 1149.91 1124.71 1103.74 1085.43 1063.2 1045.25 1031.63 1021.3 999.686 982.457 969.633 961.285 935.974 914.384 897.169 884.321 854.619 826.206 802.032 782.024 748.376 713.941 683.65 657.255 621.969 584.903 551.819 522.395 488.598 453.082 421.27 392.805 363.198 332.518 305.078 280.538 256.621 232.337 210.698 191.409 173.401 155.52 139.656 125.578 112.798 100.382 89.4138 79.722 71.0862 62.8614 55.626 49.2563 43.649 
0.0010559 0.010559 12009.8 12327.6 12632.1 12921.4 13193.5 13446.6 13678.9 13888.5 14074 14234.3 14368 14474 14551.4 14600.3 14620 14609.8 14569.8 14501 14403.4 14276.9 14122 13940.7 13733.8 13501.2 13244 12965 12665.8 12346.3 12007.9 11653.9 11287.5 10907.7 10516.4 10117 9714.55 9306.66 8895.41 8483.82 8079.13 7676.78 7278.61 6886.63 6510.5 6142.78 5784.75 5437.53 5111.41 4797.76 4496.52 4208.18 3942.26 3690.67 3451.6 3225.13 3019.58 2828.37 2648.18 2478.74 2326.89 2188.3 2058.51 1937.18 1829.33 1733.06 1643.49 1560.34 1486.5 1422.1 1362.87 1308.58 1260.12 1218.12 1180.43 1146.93 1116.93 1089.04 1065.17 1045.31 1027.97 1006.91 989.918 977.01 967.232 946.761 930.445 918.299 910.393 886.423 865.975 849.671 837.504 809.375 782.465 759.571 740.622 708.756 676.143 647.456 622.459 589.041 553.937 522.605 494.738 462.73 429.094 398.966 372.009 343.969 314.913 288.926 265.685 243.034 220.036 199.543 181.276 164.22 147.286 132.262 118.929 106.826 95.0675 84.6798 75.5011 67.3225 59.5351 52.6808 46.6484 41.338 
0.00111492 0.0111492 11374 11675 11963.4 12237.4 12495 12734.8 12954.8 13153.3 13328.9 13480.8 13607.4 13707.8 13781.1 13827.4 13846 13836.4 13798.5 13733.4 13640.9 13521.1 13374.4 13202.7 13006.7 12786.4 12542.9 12278.6 11995.3 11692.7 11372.3 11037 10690 10330.3 9959.7 9581.42 9200.27 8813.97 8424.5 8034.69 7651.43 7270.38 6893.29 6522.06 6165.84 5817.59 5478.51 5149.67 4840.82 4543.77 4258.48 3985.4 3733.56 3495.29 3268.87 3054.39 2859.73 2678.64 2507.99 2347.51 2203.71 2072.45 1949.54 1834.63 1732.48 1641.31 1556.48 1477.74 1407.81 1346.82 1290.72 1239.3 1193.41 1153.63 1117.93 1086.21 1057.8 1031.38 1008.78 989.968 973.546 953.602 937.511 925.286 916.026 896.639 881.186 869.683 862.196 839.494 820.129 804.688 793.165 766.525 741.04 719.358 701.412 671.233 640.347 613.178 589.504 557.855 524.61 494.936 468.545 438.232 406.377 377.844 352.313 325.758 298.241 273.629 251.619 230.167 208.387 188.978 171.678 155.526 139.488 125.26 112.633 101.17 90.0341 80.1964 71.5037 63.76 56.3829 49.8915 44.1785 39.1493 
0.00117724 0.0117724 10771.9 11056.9 11330.1 11589.5 11833.5 12060.6 12269 12457 12623.3 12767.1 12887 12982.1 13051.5 13095.4 13113 13103.9 13068 13006.3 12918.8 12805.3 12666.4 12503.8 12318.1 12109.5 11878.9 11628.6 11360.3 11073.7 10770.2 10452.7 10124.1 9783.4 9432.44 9074.19 8713.22 8347.37 7978.51 7609.34 7246.37 6885.49 6528.36 6176.79 5839.43 5509.61 5188.48 4877.05 4584.55 4303.23 4033.04 3774.42 3535.91 3310.25 3095.82 2892.7 2708.34 2536.83 2375.21 2223.24 2087.05 1962.74 1846.33 1737.5 1640.77 1554.42 1474.08 1399.51 1333.28 1275.52 1222.38 1173.69 1130.23 1092.56 1058.75 1028.71 1001.8 976.779 955.373 937.558 922.006 903.117 887.878 876.301 867.53 849.169 834.535 823.641 816.55 795.05 776.71 762.086 751.173 725.943 701.807 681.273 664.278 635.696 606.445 580.715 558.294 528.321 496.835 468.733 443.739 415.03 384.862 357.839 333.66 308.511 282.451 259.142 238.297 217.981 197.354 178.973 162.588 147.291 132.103 118.628 106.669 95.8137 85.2671 75.9502 67.7196 60.384 53.3975 47.2493 41.8389 37.076 
0.00124305 0.0124305 10201.6 10471.6 10730.3 10976 11207.1 11422.2 11619.5 11797.5 11955 12091.2 12204.8 12294.8 12360.6 12402.1 12418.8 12410.2 12376.2 12317.8 12234.9 12127.4 11995.8 11841.8 11666 11468.5 11250 11013 10758.9 10487.4 10200.1 9899.34 9588.11 9265.47 8933.1 8593.81 8251.95 7905.47 7556.14 7206.51 6862.75 6520.98 6182.76 5849.79 5530.29 5217.93 4913.81 4618.86 4341.85 4075.42 3819.54 3574.6 3348.72 3135.01 2931.93 2739.56 2564.96 2402.53 2249.47 2105.54 1976.56 1858.83 1748.58 1645.52 1553.9 1472.13 1396.04 1325.42 1262.69 1207.99 1157.67 1111.56 1070.39 1034.72 1002.7 974.247 948.763 925.067 904.794 887.923 873.194 855.305 840.872 829.908 821.602 804.213 790.353 780.035 773.32 752.958 735.589 721.739 711.404 687.51 664.652 645.205 629.109 602.04 574.338 549.97 528.736 500.349 470.531 443.916 420.245 393.056 364.485 338.893 315.994 292.177 267.496 245.421 225.68 206.44 186.905 169.497 153.98 139.493 125.109 112.347 101.021 90.7406 80.7524 71.9306 64.1339 57.186 50.5696 44.7475 39.6235 35.1128 
0.00131253 0.0131253 9661.57 9917.21 10162.2 10394.9 10613.8 10817.5 11004.3 11173 11322.1 11451.1 11558.7 11643.9 11706.2 11745.6 11761.4 11753.2 11721 11665.7 11587.2 11485.4 11360.8 11214.9 11048.4 10861.3 10654.5 10430 10189.3 9932.24 9660.07 9375.28 9080.52 8774.97 8460.19 8138.86 7815.1 7486.96 7156.12 6825.01 6499.45 6175.77 5855.45 5540.11 5237.52 4941.7 4653.67 4374.35 4111.99 3859.67 3617.33 3385.37 3171.44 2969.04 2776.72 2594.53 2429.17 2275.34 2130.39 1994.07 1871.92 1760.43 1656.01 1558.4 1471.64 1394.19 1322.14 1255.25 1195.85 1144.04 1096.38 1052.71 1013.73 979.939 949.615 922.669 898.534 876.093 856.893 840.914 826.965 810.024 796.355 785.971 778.104 761.636 748.509 738.738 732.378 713.094 696.644 683.528 673.74 651.11 629.462 611.045 595.801 570.165 543.93 520.852 500.742 473.858 445.619 420.413 397.995 372.246 345.187 320.95 299.264 276.707 253.333 232.427 213.731 195.509 177.008 160.522 145.827 132.107 118.484 106.398 95.6724 85.9378 76.4775 68.1212 60.7375 54.1582 47.8921 42.3783 37.5256 33.2537 
0.0013859 0.013859 9150.1 9392.2 9624.23 9844.64 10051.9 10244.8 10421.8 10581.5 10722.8 10844.9 10946.8 11027.5 11086.5 11123.8 11138.7 11131 11100.5 11048.1 10973.7 10877.3 10759.4 10621.2 10463.5 10286.3 10090.4 9877.81 9649.89 9406.44 9148.68 8878.96 8599.81 8310.43 8012.31 7708 7401.37 7090.61 6777.28 6463.7 6155.37 5848.83 5545.47 5246.82 4960.25 4680.09 4407.31 4142.77 3894.31 3655.34 3425.83 3206.15 3003.55 2811.86 2629.72 2457.18 2300.57 2154.89 2017.6 1888.51 1772.82 1667.23 1568.34 1475.9 1393.73 1320.38 1252.14 1188.79 1132.54 1083.47 1038.34 996.979 960.059 928.06 899.341 873.821 850.964 829.711 811.528 796.395 783.184 767.139 754.194 744.359 736.909 721.312 708.881 699.627 693.603 675.34 659.761 647.34 638.069 616.638 596.136 578.694 564.256 539.978 515.131 493.275 474.23 448.769 422.025 398.153 376.923 352.537 326.911 303.957 283.419 262.056 239.92 220.121 202.414 185.157 167.636 152.023 138.105 125.112 112.21 100.765 90.6077 81.3869 72.4284 64.5145 57.5217 51.2907 45.3564 40.1345 35.5387 31.493 
0.00146337 0.0146337 8665.7 8894.99 9114.74 9323.48 9519.77 9702.46 9870.05 10021.3 10155.1 10270.8 10367.3 10443.7 10499.6 10534.9 10549.1 10541.7 10512.9 10463.2 10392.8 10301.5 10189.8 10058.9 9909.62 9741.79 9556.26 9354.89 9139.03 8908.47 8664.35 8408.92 8144.54 7870.48 7588.15 7299.94 7009.55 6715.24 6418.5 6121.51 5829.51 5539.2 5251.89 4969.06 4697.66 4432.33 4173.99 3923.46 3688.15 3461.83 3244.47 3036.42 2844.54 2663.01 2490.5 2327.09 2178.78 2040.81 1910.79 1788.53 1678.97 1578.97 1485.32 1397.77 1319.95 1250.48 1185.85 1125.86 1072.58 1026.11 983.369 944.198 909.232 878.927 851.728 827.56 805.913 785.784 768.563 754.231 741.72 726.524 714.264 704.95 697.895 683.123 671.35 662.586 656.881 639.585 624.831 613.066 604.287 583.99 564.573 548.054 534.381 511.388 487.857 467.158 449.121 425.008 399.68 377.072 356.966 333.871 309.601 287.863 268.412 248.18 227.216 208.465 191.697 175.353 158.76 143.973 130.793 118.488 106.27 95.4302 85.8103 77.0777 68.5935 61.0987 54.4761 48.575 42.9549 38.0095 33.657 29.8256 
0.00154517 0.0154517 8206.95 8424.1 8632.21 8829.9 9015.8 9188.82 9347.54 9490.79 9617.5 9727.06 9818.44 9890.86 9943.76 9977.19 9990.6 9983.67 9956.35 9909.33 9842.62 9756.16 9650.34 9526.43 9385.01 9226.07 9050.36 8859.65 8655.22 8436.86 8205.67 7963.76 7713.38 7453.83 7186.44 6913.49 6638.47 6359.74 6078.71 5797.45 5520.9 5245.96 4973.86 4706 4448.97 4197.69 3953.02 3715.75 3492.9 3278.56 3072.71 2875.67 2693.95 2522.03 2358.66 2203.9 2063.44 1932.77 1809.63 1693.85 1590.08 1495.37 1406.68 1323.77 1250.07 1184.28 1123.07 1066.25 1015.8 971.788 931.308 894.21 861.096 832.395 806.636 783.747 763.245 744.183 727.873 714.3 702.451 688.06 676.448 667.627 660.945 646.956 635.806 627.505 622.102 605.722 591.749 580.607 572.292 553.07 534.681 519.037 506.088 484.312 462.026 442.423 425.341 402.505 378.517 357.107 338.065 316.192 293.208 272.62 254.199 235.039 215.185 197.427 181.546 166.068 150.355 136.351 123.869 112.215 100.644 90.3774 81.2669 72.9966 64.9616 57.8636 51.5917 46.0031 40.6805 35.9969 31.8749 28.2463 
0.00163154 0.0163154 7772.48 7978.13 8175.23 8362.45 8538.51 8702.37 8852.69 8988.35 9108.36 9212.12 9298.66 9367.24 9417.35 9449 9461.71 9455.14 9429.27 9384.74 9321.56 9239.67 9139.46 9022.11 8888.18 8737.65 8571.25 8390.63 8197.02 7990.22 7771.27 7542.16 7305.04 7059.23 6806 6547.5 6287.04 6023.06 5756.91 5490.53 5228.63 4968.24 4710.55 4456.87 4213.44 3975.46 3743.75 3519.04 3307.99 3105 2910.04 2723.43 2551.34 2388.51 2233.79 2087.22 1954.2 1830.45 1713.83 1604.17 1505.9 1416.21 1332.21 1253.69 1183.89 1121.58 1063.62 1009.81 962.019 920.34 882.002 846.869 815.508 788.326 763.93 742.253 722.837 704.783 689.337 676.482 665.26 651.631 640.634 632.28 625.951 612.703 602.143 594.282 589.164 573.651 560.418 549.866 541.991 523.786 506.371 491.555 479.291 458.668 437.562 418.997 402.819 381.192 358.475 338.198 320.164 299.45 277.682 258.185 240.739 222.593 203.79 186.975 171.935 157.277 142.394 129.132 117.31 106.273 95.3146 85.592 76.9638 69.1315 61.5219 54.7997 48.8599 43.5672 38.5264 34.0908 30.1871 26.7506 
0.00172274 0.0172274 7361.01 7555.78 7742.44 7919.75 8086.49 8241.68 8384.04 8512.52 8626.17 8724.44 8806.4 8871.35 8918.8 8948.78 8960.82 8954.6 8930.09 8887.92 8828.09 8750.54 8655.62 8544.49 8417.65 8275.08 8117.49 7946.44 7763.08 7567.23 7359.87 7142.89 6918.32 6685.52 6445.69 6200.88 5954.21 5704.2 5452.14 5199.87 4951.83 4705.22 4461.18 4220.93 3990.39 3765 3545.56 3332.74 3132.86 2940.62 2755.99 2579.26 2416.27 2262.06 2115.53 1976.73 1850.74 1733.54 1623.1 1519.25 1426.18 1341.23 1261.68 1187.32 1121.21 1062.21 1007.31 956.345 911.088 871.615 835.307 802.033 772.332 746.589 723.485 702.955 684.567 667.469 652.84 640.666 630.038 617.13 606.715 598.803 592.81 580.262 570.261 562.816 557.97 543.278 530.745 520.751 513.293 496.052 479.559 465.527 453.913 434.382 414.393 396.811 381.49 361.008 339.493 320.289 303.21 283.593 262.978 244.513 227.996 210.811 193.003 177.076 162.832 148.95 134.855 122.295 111.099 100.646 90.2679 81.06 72.8885 65.4709 58.2642 51.898 46.2726 41.2602 36.4863 32.2856 28.5886 25.3341 
0.00181904 0.0181904 6971.33 7155.78 7332.56 7500.49 7658.4 7805.37 7940.2 8061.88 8169.51 8262.58 8340.19 8401.71 8446.65 8475.04 8486.44 8480.55 8457.34 8417.4 8360.74 8287.29 8197.4 8092.15 7972.02 7837.01 7687.76 7525.76 7352.11 7166.63 6970.24 6764.75 6552.07 6331.59 6104.46 5872.61 5639 5402.23 5163.51 4924.59 4689.68 4456.13 4225 3997.47 3779.14 3565.69 3357.86 3156.31 2967.01 2784.94 2610.09 2442.71 2288.35 2142.31 2003.54 1872.08 1752.76 1641.77 1537.17 1438.82 1350.68 1270.23 1194.89 1124.46 1061.85 1005.97 953.978 905.714 862.853 825.47 791.083 759.571 731.442 707.062 685.181 665.738 648.323 632.13 618.276 606.746 596.68 584.455 574.592 567.099 561.422 549.539 540.067 533.016 528.426 514.512 502.642 493.178 486.115 469.786 454.166 440.877 429.878 411.38 392.45 375.799 361.289 341.891 321.516 303.329 287.162 268.583 249.059 231.572 215.924 199.649 182.784 167.7 154.211 141.063 127.715 115.82 105.217 95.3173 85.4885 76.7681 69.0294 62.0044 55.1793 49.15 43.8225 39.0753 34.5542 30.5759 27.0747 23.9925 
0.00192072 0.0192072 6602.27 6776.96 6944.39 7103.42 7252.97 7392.16 7519.85 7635.09 7737.03 7825.17 7898.67 7956.93 7999.49 8026.38 8037.17 8031.6 8009.62 7971.79 7918.13 7848.57 7763.44 7663.76 7549.99 7422.12 7280.78 7127.35 6962.89 6787.23 6601.24 6406.63 6205.21 5996.4 5781.3 5561.72 5340.47 5116.24 4890.16 4663.89 4441.42 4220.23 4001.34 3785.85 3579.07 3376.92 3180.1 2989.22 2809.94 2637.51 2471.91 2313.39 2167.21 2028.9 1897.47 1772.97 1659.97 1554.85 1455.79 1362.64 1279.17 1202.98 1131.63 1064.93 1005.64 952.712 903.472 857.763 817.171 781.767 749.201 719.356 692.717 669.627 648.904 630.49 613.997 598.661 585.54 574.62 565.087 553.51 544.169 537.072 531.696 520.441 511.471 504.793 500.446 487.268 476.027 467.063 460.374 444.91 430.117 417.531 407.114 389.596 371.668 355.911 342.169 323.798 304.501 287.277 271.958 254.362 235.873 219.311 204.492 189.078 173.106 158.821 146.046 133.594 120.952 109.687 99.6456 90.2704 80.962 72.7033 65.3744 58.7214 52.2576 46.5476 41.5021 37.0064 32.7247 28.957 25.6411 22.7221 
0.00202809 0.0202809 6252.75 6418.2 6576.76 6727.37 6869.01 7000.83 7121.76 7230.89 7327.43 7410.91 7480.52 7535.7 7576.01 7601.47 7611.69 7606.41 7585.6 7549.77 7498.95 7433.07 7352.45 7258.05 7150.3 7029.2 6895.34 6750.04 6594.28 6427.92 6251.78 6067.47 5876.71 5678.96 5475.24 5267.28 5057.75 4845.39 4631.28 4416.99 4206.29 3996.81 3789.51 3585.43 3389.6 3198.15 3011.74 2830.97 2661.18 2497.88 2341.04 2190.92 2052.47 1921.49 1797.02 1679.11 1572.09 1472.54 1378.72 1290.5 1211.45 1139.29 1071.72 1008.55 952.395 902.273 855.64 812.35 773.907 740.377 709.535 681.27 656.041 634.173 614.547 597.108 581.488 566.964 554.537 544.196 535.167 524.202 515.355 508.634 503.542 492.884 484.388 478.064 473.947 461.466 450.82 442.331 436.013 421.367 407.357 395.437 385.572 368.981 352.002 337.067 324.052 306.654 288.378 272.066 257.558 240.895 223.384 207.699 193.664 179.067 163.941 150.412 138.313 126.521 114.548 103.879 94.3694 85.4906 76.675 68.8536 61.9127 55.612 49.4905 44.0829 39.3046 35.0469 30.9919 27.4237 24.2834 21.519 
0.00214145 0.0214145 5921.74 6078.42 6228.59 6371.23 6505.37 6630.21 6744.74 6848.1 6939.53 7018.58 7084.51 7136.77 7174.94 7199.06 7208.74 7203.74 7184.02 7150.1 7101.96 7039.57 6963.22 6873.81 6771.77 6657.08 6530.31 6392.7 6245.19 6087.63 5920.81 5746.26 5565.6 5378.32 5185.39 4988.44 4790 4588.88 4386.1 4183.15 3983.61 3785.22 3588.89 3395.62 3210.16 3028.84 2852.3 2681.1 2520.3 2365.64 2217.11 2074.94 1943.82 1819.76 1701.88 1590.22 1488.87 1394.58 1305.73 1222.18 1147.31 1078.98 1014.98 955.155 901.975 854.506 810.341 769.343 732.935 701.18 671.971 645.202 621.308 600.599 582.011 565.495 550.702 536.947 525.178 515.384 506.833 496.449 488.07 481.705 476.882 466.788 458.742 452.752 448.853 437.033 426.951 418.911 412.927 399.057 385.789 374.5 365.157 349.444 333.364 319.22 306.894 290.417 273.109 257.661 243.921 228.139 211.556 196.701 183.41 169.585 155.26 142.447 130.989 119.821 108.483 98.3787 89.3724 80.9637 72.6149 65.2077 58.6343 52.6672 46.8698 41.7485 37.2232 33.191 29.3507 25.9715 22.9975 20.3794 
0.00226116 0.0226116 5608.25 5756.64 5898.85 6033.94 6160.98 6279.21 6387.68 6485.56 6572.16 6647.02 6709.47 6758.95 6795.11 6817.95 6827.11 6822.38 6803.71 6771.58 6725.99 6666.9 6594.59 6509.92 6413.28 6304.66 6184.6 6054.27 5914.57 5765.36 5607.37 5442.06 5270.96 5093.6 4910.88 4724.35 4536.42 4345.95 4153.9 3961.7 3772.72 3584.84 3398.9 3215.86 3040.21 2868.5 2701.31 2539.16 2386.88 2240.41 2099.74 1965.09 1840.91 1723.43 1611.79 1506.03 1410.05 1320.75 1236.61 1157.48 1086.58 1021.86 961.248 904.589 854.224 809.268 767.442 728.614 694.133 664.059 636.396 611.045 588.416 568.802 551.199 535.557 521.547 508.52 497.374 488.098 480.001 470.166 462.231 456.202 451.635 442.075 434.455 428.782 425.09 413.896 404.347 396.733 391.05 377.915 365.349 354.658 345.822 330.942 315.713 302.317 290.644 275.04 258.648 244.017 231.005 216.059 200.353 186.286 173.698 160.605 147.038 134.904 124.053 113.476 102.738 93.1692 84.6397 76.6763 68.7696 61.7546 55.5293 49.8782 44.3878 39.5377 35.252 31.4333 27.7964 24.5962 21.7796 19.3002 
0.00238755 0.0238755 5311.35 5451.89 5586.57 5714.51 5834.82 5946.8 6049.52 6142.22 6224.23 6295.14 6354.27 6401.14 6435.38 6457.01 6465.69 6461.21 6443.52 6413.1 6369.92 6313.96 6245.48 6165.29 6073.77 5970.9 5857.19 5733.76 5601.46 5460.15 5310.52 5153.96 4991.92 4823.95 4650.9 4474.25 4296.27 4115.87 3934 3751.97 3573 3395.06 3218.97 3045.61 2879.27 2716.64 2558.3 2404.74 2260.52 2121.8 1988.58 1861.06 1743.46 1632.19 1526.46 1426.3 1335.4 1250.83 1171.14 1096.21 1029.05 967.759 910.36 856.7 809.001 766.425 726.813 690.041 657.385 628.903 602.705 578.696 557.264 538.689 522.018 507.204 493.936 481.598 471.042 462.258 454.588 445.274 437.759 432.05 427.724 418.67 411.454 406.081 402.584 391.982 382.939 375.728 370.347 357.906 346.006 335.881 327.5 313.408 298.986 286.299 275.254 260.476 244.952 231.096 218.773 204.618 189.744 176.421 164.5 152.101 139.252 127.76 117.483 107.467 97.2974 88.2353 80.1574 72.6157 65.1277 58.4842 52.5885 47.2367 42.0371 37.4438 33.3851 29.7686 26.3243 23.2935 20.6262 18.278 
0.00252101 0.0252101 5030.17 5163.27 5290.83 5411.99 5525.93 5631.98 5729.26 5817.06 5894.73 5961.88 6017.88 6062.27 6094.7 6115.18 6123.41 6119.16 6102.41 6073.59 6032.71 5979.71 5914.85 5838.9 5752.23 5654.81 5547.12 5430.22 5304.93 5171.09 5029.39 4881.11 4727.65 4568.57 4404.68 4237.39 4068.82 3897.98 3725.74 3553.35 3383.85 3215.33 3048.56 2884.38 2726.84 2572.82 2422.87 2277.44 2140.85 2009.47 1883.31 1762.54 1651.16 1545.78 1445.65 1350.79 1264.7 1184.61 1109.14 1038.17 974.575 916.526 862.165 811.346 766.172 725.85 688.335 653.509 622.582 595.608 570.797 548.059 527.762 510.17 494.381 480.352 467.786 456.101 446.104 437.784 430.521 421.7 414.583 409.175 405.079 396.504 389.67 384.582 381.269 371.229 362.665 355.835 350.739 338.957 327.686 318.097 310.161 296.814 283.156 271.141 260.671 246.676 231.974 218.852 207.182 193.777 179.691 167.074 155.784 144.041 131.874 120.991 111.258 101.772 92.1415 83.5595 75.9096 68.7674 61.6762 55.3847 49.8015 44.7332 39.8091 35.4593 31.6157 28.1909 24.9291 22.0589 19.5329 17.3093 
0.00266193 0.0266193 4763.88 4889.93 5010.73 5125.49 5233.4 5333.83 5425.96 5509.11 5582.66 5646.26 5699.3 5741.34 5772.05 5791.45 5799.24 5795.21 5779.35 5752.06 5713.34 5663.15 5601.72 5529.8 5447.71 5355.45 5253.46 5142.75 5024.09 4897.34 4763.14 4622.71 4477.38 4326.71 4171.5 4013.06 3853.42 3691.63 3528.5 3365.23 3204.71 3045.11 2887.17 2731.68 2582.48 2436.62 2294.6 2156.87 2027.51 1903.09 1783.6 1669.23 1563.75 1463.95 1369.12 1279.28 1197.75 1121.9 1050.42 983.212 922.98 868.005 816.522 768.393 725.611 687.423 651.894 618.912 589.622 564.076 540.578 519.043 499.821 483.161 468.207 454.921 443.02 431.954 422.486 414.607 407.728 399.374 392.633 387.512 383.632 375.512 369.039 364.22 361.083 351.574 343.463 336.995 332.168 321.01 310.336 301.255 293.739 281.099 268.163 256.785 246.869 233.615 219.691 207.264 196.211 183.516 170.176 158.226 147.533 136.412 124.889 114.582 105.365 96.3818 87.261 79.1335 71.8888 65.1249 58.4092 52.451 47.1634 42.3636 37.7003 33.5809 29.9409 26.6975 23.6085 20.8903 18.4981 16.3923 
